SpectraSuite Data File
++++++++++++++++++++++++++++++++++++
Date: Mon Jul 22 15:08:57 EST 2019
User: Oceanview3
Dark Spectrum Present: Yes
Reference Spectrum Present: Yes
Number of Sampled Component Spectra: 1
Spectrometers: USB2G53411
Integration Time (usec): 100000 (USB2G53411)
Spectra Averaged: 9 (USB2G53411)
Boxcar Smoothing: 0 (USB2G53411)
Correct for Electrical Dark: No (USB2G53411)
Strobe/Lamp Enabled: Yes (USB2G53411)
Correct for Detector Non-linearity: No (USB2G53411)
Correct for Stray Light: No (USB2G53411)
Number of Pixels in Processed Spectrum: 651
>>>>>Begin Processed Spectral Data<<<<<
200.00	0.118
201.00	0.089
202.00	0.056
203.00	0.023
204.00	0.129
205.00	-0.023
206.00	0.137
207.00	0.085
208.00	0.060
209.00	0.110
210.00	0.006
211.00	0.050
212.00	0.024
213.00	0.110
214.00	0.074
215.00	0.102
216.00	0.092
217.00	0.023
218.00	0.026
219.00	0.062
220.00	0.153
221.00	0.191
222.00	0.048
223.00	0.213
224.00	0.005
225.00	0.061
226.00	-0.038
227.00	0.067
228.00	0.123
229.00	0.123
230.00	0.013
231.00	0.063
232.00	0.102
233.00	0.090
234.00	0.084
235.00	-0.026
236.00	0.081
237.00	-0.038
238.00	0.055
239.00	0.061
240.00	0.058
241.00	-0.013
242.00	0.055
243.00	0.031
244.00	-0.031
245.00	0.089
246.00	-0.008
247.00	0.106
248.00	0.098
249.00	0.036
250.00	0.148
251.00	0.074
252.00	0.006
253.00	0.081
254.00	0.045
255.00	0.017
256.00	0.002
257.00	0.007
258.00	0.005
259.00	-0.006
260.00	0.010
261.00	0.009
262.00	0.017
263.00	0.009
264.00	0.000
265.00	-0.010
266.00	-0.003
267.00	-0.001
268.00	0.006
269.00	-0.003
270.00	0.002
271.00	-0.001
272.00	0.004
273.00	-0.004
274.00	-0.001
275.00	-0.002
276.00	0.003
277.00	0.007
278.00	0.003
279.00	0.005
280.00	0.005
281.00	0.001
282.00	-0.002
283.00	-0.002
284.00	0.000
285.00	0.002
286.00	-0.000
287.00	0.002
288.00	0.002
289.00	-0.000
290.00	0.004
291.00	0.001
292.00	-0.001
293.00	0.006
294.00	-0.000
295.00	0.003
296.00	0.003
297.00	0.003
298.00	0.003
299.00	-0.002
300.00	0.001
301.00	0.001
302.00	-0.003
303.00	0.001
304.00	-0.001
305.00	0.005
306.00	0.002
307.00	0.001
308.00	0.002
309.00	0.000
310.00	0.003
311.00	0.000
312.00	-0.000
313.00	0.002
314.00	0.003
315.00	0.005
316.00	0.001
317.00	0.004
318.00	-0.001
319.00	0.002
320.00	0.002
321.00	-0.001
322.00	-0.000
323.00	-0.000
324.00	-0.001
325.00	0.002
326.00	0.001
327.00	-0.000
328.00	0.000
329.00	-0.000
330.00	0.004
331.00	0.004
332.00	0.002
333.00	0.003
334.00	0.005
335.00	0.005
336.00	0.004
337.00	-0.000
338.00	0.005
339.00	-0.003
340.00	0.005
341.00	-0.001
342.00	0.000
343.00	-0.002
344.00	0.002
345.00	0.000
346.00	0.003
347.00	0.003
348.00	-0.001
349.00	0.003
350.00	0.004
351.00	-0.000
352.00	0.000
353.00	0.002
354.00	0.004
355.00	0.002
356.00	0.001
357.00	0.002
358.00	-0.000
359.00	0.001
360.00	0.002
361.00	0.003
362.00	0.000
363.00	0.001
364.00	0.003
365.00	0.000
366.00	0.002
367.00	0.001
368.00	-0.001
369.00	0.001
370.00	0.002
371.00	0.001
372.00	0.003
373.00	0.001
374.00	0.001
375.00	-0.001
376.00	0.000
377.00	0.002
378.00	-0.001
379.00	0.001
380.00	0.000
381.00	0.003
382.00	0.001
383.00	0.000
384.00	0.004
385.00	-0.004
386.00	0.000
387.00	0.003
388.00	0.001
389.00	0.001
390.00	-0.000
391.00	-0.002
392.00	0.002
393.00	0.002
394.00	0.001
395.00	0.001
396.00	-0.000
397.00	0.004
398.00	0.003
399.00	0.001
400.00	0.002
401.00	0.004
402.00	0.001
403.00	0.001
404.00	0.001
405.00	-0.000
406.00	0.001
407.00	0.000
408.00	0.001
409.00	0.002
410.00	0.002
411.00	-0.002
412.00	-0.000
413.00	-0.002
414.00	0.003
415.00	0.003
416.00	0.004
417.00	0.001
418.00	-0.000
419.00	0.001
420.00	0.004
421.00	0.001
422.00	0.001
423.00	0.001
424.00	0.001
425.00	0.003
426.00	0.002
427.00	0.004
428.00	0.001
429.00	0.003
430.00	0.003
431.00	0.001
432.00	0.001
433.00	0.001
434.00	0.004
435.00	0.002
436.00	0.004
437.00	0.003
438.00	0.003
439.00	0.004
440.00	0.002
441.00	0.001
442.00	0.002
443.00	0.000
444.00	0.003
445.00	0.001
446.00	0.002
447.00	0.004
448.00	0.001
449.00	0.002
450.00	0.004
451.00	0.003
452.00	0.001
453.00	0.001
454.00	0.002
455.00	0.001
456.00	0.004
457.00	0.002
458.00	0.002
459.00	0.004
460.00	0.004
461.00	0.002
462.00	0.002
463.00	0.001
464.00	0.001
465.00	0.003
466.00	0.002
467.00	0.002
468.00	0.001
469.00	0.000
470.00	0.003
471.00	0.003
472.00	0.002
473.00	0.005
474.00	0.002
475.00	0.002
476.00	-0.000
477.00	0.001
478.00	0.004
479.00	0.004
480.00	0.001
481.00	0.004
482.00	0.006
483.00	0.004
484.00	0.005
485.00	0.001
486.00	0.001
487.00	0.001
488.00	0.003
489.00	0.001
490.00	0.003
491.00	0.002
492.00	0.002
493.00	0.005
494.00	0.004
495.00	0.005
496.00	0.004
497.00	0.001
498.00	0.002
499.00	0.006
500.00	0.003
501.00	0.004
502.00	0.003
503.00	0.002
504.00	0.004
505.00	0.005
506.00	0.004
507.00	0.006
508.00	0.006
509.00	0.006
510.00	0.005
511.00	0.006
512.00	0.007
513.00	0.003
514.00	0.005
515.00	0.003
516.00	0.005
517.00	0.005
518.00	0.002
519.00	0.003
520.00	0.004
521.00	0.006
522.00	0.001
523.00	0.003
524.00	0.006
525.00	0.005
526.00	0.006
527.00	0.005
528.00	0.006
529.00	0.007
530.00	0.005
531.00	0.006
532.00	0.004
533.00	0.001
534.00	0.006
535.00	0.005
536.00	0.005
537.00	0.005
538.00	0.006
539.00	0.006
540.00	0.002
541.00	0.005
542.00	0.004
543.00	0.004
544.00	0.003
545.00	0.004
546.00	0.006
547.00	0.006
548.00	0.005
549.00	0.006
550.00	0.005
551.00	0.006
552.00	0.006
553.00	0.006
554.00	0.006
555.00	0.004
556.00	0.007
557.00	0.007
558.00	0.007
559.00	0.004
560.00	0.004
561.00	0.007
562.00	0.005
563.00	0.008
564.00	0.006
565.00	0.007
566.00	0.006
567.00	0.006
568.00	0.006
569.00	0.007
570.00	0.006
571.00	0.005
572.00	0.004
573.00	0.006
574.00	0.009
575.00	0.004
576.00	0.003
577.00	0.003
578.00	0.004
579.00	0.005
580.00	0.006
581.00	0.004
582.00	0.006
583.00	0.001
584.00	0.006
585.00	0.004
586.00	0.006
587.00	0.005
588.00	0.002
589.00	0.007
590.00	0.007
591.00	0.004
592.00	0.006
593.00	0.007
594.00	0.003
595.00	0.003
596.00	0.006
597.00	0.005
598.00	0.008
599.00	0.004
600.00	0.005
601.00	0.004
602.00	0.006
603.00	0.006
604.00	0.005
605.00	0.003
606.00	0.005
607.00	0.005
608.00	0.005
609.00	0.006
610.00	0.007
611.00	0.008
612.00	0.007
613.00	0.004
614.00	0.009
615.00	0.005
616.00	0.006
617.00	0.006
618.00	0.006
619.00	0.005
620.00	0.002
621.00	0.005
622.00	0.006
623.00	0.006
624.00	0.006
625.00	0.008
626.00	0.007
627.00	0.007
628.00	0.007
629.00	0.007
630.00	0.004
631.00	0.007
632.00	0.008
633.00	0.007
634.00	0.010
635.00	0.011
636.00	0.010
637.00	0.004
638.00	0.009
639.00	0.009
640.00	0.010
641.00	0.008
642.00	0.005
643.00	0.005
644.00	0.012
645.00	0.011
646.00	0.012
647.00	0.009
648.00	0.006
649.00	0.009
650.00	0.007
651.00	0.013
652.00	0.010
653.00	0.008
654.00	0.010
655.00	0.007
656.00	0.007
657.00	0.008
658.00	0.008
659.00	0.009
660.00	0.008
661.00	0.011
662.00	0.008
663.00	0.007
664.00	0.007
665.00	0.007
666.00	0.006
667.00	0.007
668.00	0.006
669.00	0.007
670.00	0.005
671.00	0.009
672.00	0.009
673.00	0.011
674.00	0.011
675.00	0.007
676.00	0.010
677.00	0.013
678.00	0.007
679.00	0.009
680.00	0.008
681.00	0.010
682.00	0.009
683.00	0.008
684.00	0.008
685.00	0.007
686.00	0.012
687.00	0.011
688.00	0.007
689.00	0.006
690.00	0.006
691.00	0.004
692.00	0.009
693.00	0.006
694.00	0.007
695.00	0.007
696.00	0.006
697.00	0.009
698.00	0.007
699.00	0.010
700.00	0.005
701.00	0.008
702.00	0.007
703.00	0.009
704.00	0.008
705.00	0.007
706.00	0.008
707.00	0.009
708.00	0.008
709.00	0.010
710.00	0.009
711.00	0.007
712.00	0.011
713.00	0.007
714.00	0.005
715.00	0.004
716.00	0.006
717.00	0.006
718.00	0.011
719.00	0.005
720.00	0.009
721.00	0.011
722.00	0.011
723.00	0.009
724.00	0.007
725.00	0.007
726.00	0.006
727.00	0.006
728.00	0.007
729.00	0.010
730.00	0.006
731.00	0.012
732.00	0.006
733.00	0.009
734.00	0.009
735.00	0.009
736.00	0.009
737.00	0.011
738.00	0.011
739.00	0.012
740.00	0.011
741.00	0.010
742.00	0.008
743.00	0.009
744.00	0.010
745.00	0.004
746.00	0.009
747.00	0.012
748.00	0.009
749.00	0.008
750.00	0.007
751.00	0.007
752.00	0.012
753.00	0.008
754.00	0.009
755.00	0.010
756.00	0.008
757.00	0.005
758.00	0.008
759.00	0.008
760.00	0.006
761.00	0.010
762.00	0.009
763.00	0.009
764.00	0.009
765.00	0.010
766.00	0.006
767.00	0.009
768.00	0.012
769.00	0.010
770.00	0.009
771.00	0.007
772.00	0.008
773.00	0.009
774.00	0.010
775.00	0.007
776.00	0.011
777.00	0.009
778.00	0.011
779.00	0.008
780.00	0.009
781.00	0.008
782.00	0.007
783.00	0.010
784.00	0.009
785.00	0.007
786.00	0.013
787.00	0.008
788.00	0.011
789.00	0.009
790.00	0.010
791.00	0.009
792.00	0.009
793.00	0.010
794.00	0.011
795.00	0.011
796.00	0.006
797.00	0.008
798.00	0.006
799.00	0.008
800.00	0.013
801.00	0.014
802.00	0.011
803.00	0.006
804.00	0.013
805.00	0.019
806.00	0.014
807.00	0.016
808.00	0.019
809.00	0.017
810.00	0.014
811.00	0.013
812.00	0.012
813.00	0.011
814.00	0.010
815.00	0.016
816.00	0.010
817.00	0.015
818.00	0.020
819.00	0.019
820.00	0.017
821.00	0.020
822.00	0.013
823.00	0.018
824.00	0.017
825.00	0.023
826.00	0.017
827.00	0.021
828.00	0.016
829.00	0.023
830.00	0.017
831.00	0.010
832.00	0.023
833.00	0.016
834.00	0.017
835.00	0.022
836.00	0.013
837.00	0.031
838.00	0.011
839.00	0.019
840.00	0.016
841.00	0.019
842.00	0.011
843.00	0.014
844.00	0.017
845.00	0.006
846.00	0.030
847.00	0.011
848.00	0.020
849.00	0.015
850.00	0.018
>>>>>End Processed Spectral Data<<<<<
