SpectraSuite Data File
++++++++++++++++++++++++++++++++++++
Date: Mon Jul 22 15:10:56 EST 2019
User: Oceanview3
Dark Spectrum Present: Yes
Reference Spectrum Present: Yes
Number of Sampled Component Spectra: 1
Spectrometers: USB2G53411
Integration Time (usec): 100000 (USB2G53411)
Spectra Averaged: 9 (USB2G53411)
Boxcar Smoothing: 0 (USB2G53411)
Correct for Electrical Dark: No (USB2G53411)
Strobe/Lamp Enabled: Yes (USB2G53411)
Correct for Detector Non-linearity: No (USB2G53411)
Correct for Stray Light: No (USB2G53411)
Number of Pixels in Processed Spectrum: 651
>>>>>Begin Processed Spectral Data<<<<<
200.00	0.261
201.00	0.088
202.00	-0.020
203.00	0.056
204.00	0.208
205.00	0.109
206.00	0.134
207.00	0.171
208.00	0.202
209.00	0.105
210.00	0.106
211.00	0.155
212.00	0.112
213.00	0.269
214.00	0.145
215.00	0.027
216.00	0.141
217.00	0.129
218.00	0.061
219.00	0.130
220.00	0.247
221.00	0.144
222.00	0.113
223.00	0.161
224.00	0.099
225.00	0.055
226.00	0.133
227.00	0.147
228.00	0.245
229.00	0.271
230.00	0.168
231.00	0.198
232.00	0.162
233.00	0.226
234.00	0.173
235.00	0.168
236.00	0.221
237.00	0.078
238.00	0.156
239.00	0.344
240.00	0.208
241.00	0.136
242.00	0.239
243.00	0.193
244.00	0.199
245.00	0.363
246.00	0.217
247.00	0.257
248.00	0.254
249.00	0.258
250.00	0.440
251.00	0.350
252.00	0.346
253.00	0.481
254.00	0.535
255.00	0.725
256.00	0.807
257.00	0.852
258.00	1.042
259.00	1.176
260.00	1.257
261.00	1.399
262.00	1.382
263.00	1.323
264.00	1.506
265.00	1.643
266.00	1.531
267.00	1.710
268.00	1.661
269.00	1.729
270.00	1.661
271.00	1.757
272.00	1.679
273.00	1.879
274.00	1.881
275.00	1.943
276.00	1.780
277.00	1.813
278.00	1.890
279.00	1.914
280.00	1.877
281.00	1.833
282.00	1.905
283.00	2.101
284.00	1.923
285.00	1.990
286.00	1.929
287.00	1.943
288.00	1.924
289.00	1.891
290.00	1.934
291.00	1.990
292.00	1.922
293.00	1.961
294.00	1.882
295.00	1.889
296.00	1.851
297.00	1.870
298.00	1.731
299.00	1.718
300.00	1.573
301.00	1.440
302.00	1.329
303.00	1.219
304.00	1.124
305.00	1.032
306.00	0.952
307.00	0.902
308.00	0.840
309.00	0.782
310.00	0.742
311.00	0.698
312.00	0.669
313.00	0.630
314.00	0.609
315.00	0.575
316.00	0.552
317.00	0.529
318.00	0.503
319.00	0.487
320.00	0.465
321.00	0.438
322.00	0.418
323.00	0.398
324.00	0.377
325.00	0.357
326.00	0.341
327.00	0.320
328.00	0.306
329.00	0.292
330.00	0.276
331.00	0.263
332.00	0.248
333.00	0.237
334.00	0.225
335.00	0.214
336.00	0.201
337.00	0.193
338.00	0.188
339.00	0.175
340.00	0.171
341.00	0.164
342.00	0.156
343.00	0.149
344.00	0.148
345.00	0.134
346.00	0.132
347.00	0.127
348.00	0.120
349.00	0.118
350.00	0.111
351.00	0.103
352.00	0.101
353.00	0.096
354.00	0.094
355.00	0.089
356.00	0.083
357.00	0.080
358.00	0.074
359.00	0.071
360.00	0.067
361.00	0.067
362.00	0.061
363.00	0.059
364.00	0.055
365.00	0.052
366.00	0.051
367.00	0.048
368.00	0.043
369.00	0.041
370.00	0.040
371.00	0.037
372.00	0.038
373.00	0.034
374.00	0.032
375.00	0.029
376.00	0.028
377.00	0.028
378.00	0.028
379.00	0.026
380.00	0.025
381.00	0.023
382.00	0.022
383.00	0.021
384.00	0.021
385.00	0.021
386.00	0.019
387.00	0.021
388.00	0.016
389.00	0.019
390.00	0.017
391.00	0.015
392.00	0.016
393.00	0.020
394.00	0.016
395.00	0.017
396.00	0.014
397.00	0.016
398.00	0.015
399.00	0.014
400.00	0.015
401.00	0.014
402.00	0.014
403.00	0.012
404.00	0.010
405.00	0.011
406.00	0.012
407.00	0.011
408.00	0.012
409.00	0.014
410.00	0.010
411.00	0.010
412.00	0.010
413.00	0.009
414.00	0.013
415.00	0.009
416.00	0.013
417.00	0.010
418.00	0.007
419.00	0.013
420.00	0.009
421.00	0.009
422.00	0.009
423.00	0.010
424.00	0.007
425.00	0.010
426.00	0.007
427.00	0.010
428.00	0.009
429.00	0.009
430.00	0.009
431.00	0.010
432.00	0.010
433.00	0.009
434.00	0.010
435.00	0.010
436.00	0.009
437.00	0.008
438.00	0.009
439.00	0.010
440.00	0.008
441.00	0.006
442.00	0.008
443.00	0.006
444.00	0.007
445.00	0.006
446.00	0.009
447.00	0.009
448.00	0.010
449.00	0.008
450.00	0.009
451.00	0.008
452.00	0.008
453.00	0.009
454.00	0.010
455.00	0.007
456.00	0.009
457.00	0.008
458.00	0.008
459.00	0.011
460.00	0.006
461.00	0.007
462.00	0.008
463.00	0.005
464.00	0.007
465.00	0.007
466.00	0.007
467.00	0.006
468.00	0.006
469.00	0.006
470.00	0.005
471.00	0.007
472.00	0.007
473.00	0.007
474.00	0.006
475.00	0.008
476.00	0.007
477.00	0.007
478.00	0.010
479.00	0.005
480.00	0.006
481.00	0.007
482.00	0.009
483.00	0.009
484.00	0.010
485.00	0.010
486.00	0.008
487.00	0.007
488.00	0.007
489.00	0.009
490.00	0.008
491.00	0.006
492.00	0.006
493.00	0.009
494.00	0.008
495.00	0.009
496.00	0.007
497.00	0.004
498.00	0.007
499.00	0.011
500.00	0.008
501.00	0.008
502.00	0.006
503.00	0.009
504.00	0.006
505.00	0.010
506.00	0.011
507.00	0.009
508.00	0.010
509.00	0.012
510.00	0.012
511.00	0.008
512.00	0.006
513.00	0.007
514.00	0.010
515.00	0.008
516.00	0.007
517.00	0.012
518.00	0.008
519.00	0.007
520.00	0.007
521.00	0.008
522.00	0.008
523.00	0.008
524.00	0.010
525.00	0.009
526.00	0.009
527.00	0.010
528.00	0.009
529.00	0.012
530.00	0.011
531.00	0.009
532.00	0.008
533.00	0.008
534.00	0.012
535.00	0.008
536.00	0.008
537.00	0.010
538.00	0.011
539.00	0.012
540.00	0.007
541.00	0.009
542.00	0.008
543.00	0.011
544.00	0.009
545.00	0.007
546.00	0.011
547.00	0.010
548.00	0.011
549.00	0.010
550.00	0.009
551.00	0.011
552.00	0.009
553.00	0.007
554.00	0.010
555.00	0.007
556.00	0.010
557.00	0.012
558.00	0.010
559.00	0.009
560.00	0.009
561.00	0.012
562.00	0.009
563.00	0.009
564.00	0.010
565.00	0.011
566.00	0.011
567.00	0.011
568.00	0.009
569.00	0.010
570.00	0.010
571.00	0.006
572.00	0.008
573.00	0.009
574.00	0.010
575.00	0.007
576.00	0.006
577.00	0.009
578.00	0.006
579.00	0.009
580.00	0.011
581.00	0.010
582.00	0.009
583.00	0.009
584.00	0.008
585.00	0.006
586.00	0.010
587.00	0.008
588.00	0.007
589.00	0.012
590.00	0.010
591.00	0.010
592.00	0.009
593.00	0.009
594.00	0.007
595.00	0.010
596.00	0.010
597.00	0.009
598.00	0.012
599.00	0.008
600.00	0.007
601.00	0.008
602.00	0.010
603.00	0.010
604.00	0.010
605.00	0.009
606.00	0.010
607.00	0.011
608.00	0.008
609.00	0.008
610.00	0.009
611.00	0.014
612.00	0.012
613.00	0.010
614.00	0.012
615.00	0.009
616.00	0.009
617.00	0.010
618.00	0.009
619.00	0.010
620.00	0.007
621.00	0.011
622.00	0.010
623.00	0.010
624.00	0.009
625.00	0.007
626.00	0.010
627.00	0.011
628.00	0.008
629.00	0.011
630.00	0.008
631.00	0.011
632.00	0.007
633.00	0.008
634.00	0.014
635.00	0.014
636.00	0.012
637.00	0.008
638.00	0.014
639.00	0.009
640.00	0.014
641.00	0.012
642.00	0.010
643.00	0.007
644.00	0.012
645.00	0.017
646.00	0.013
647.00	0.010
648.00	0.010
649.00	0.012
650.00	0.010
651.00	0.015
652.00	0.012
653.00	0.012
654.00	0.011
655.00	0.009
656.00	0.008
657.00	0.011
658.00	0.012
659.00	0.007
660.00	0.011
661.00	0.013
662.00	0.010
663.00	0.008
664.00	0.012
665.00	0.010
666.00	0.009
667.00	0.010
668.00	0.010
669.00	0.011
670.00	0.009
671.00	0.010
672.00	0.011
673.00	0.010
674.00	0.011
675.00	0.010
676.00	0.010
677.00	0.013
678.00	0.009
679.00	0.010
680.00	0.009
681.00	0.010
682.00	0.010
683.00	0.010
684.00	0.012
685.00	0.011
686.00	0.010
687.00	0.011
688.00	0.012
689.00	0.010
690.00	0.008
691.00	0.007
692.00	0.013
693.00	0.008
694.00	0.010
695.00	0.009
696.00	0.011
697.00	0.009
698.00	0.013
699.00	0.013
700.00	0.010
701.00	0.012
702.00	0.008
703.00	0.009
704.00	0.007
705.00	0.010
706.00	0.009
707.00	0.014
708.00	0.011
709.00	0.015
710.00	0.010
711.00	0.010
712.00	0.013
713.00	0.009
714.00	0.006
715.00	0.008
716.00	0.009
717.00	0.011
718.00	0.013
719.00	0.010
720.00	0.014
721.00	0.016
722.00	0.015
723.00	0.011
724.00	0.009
725.00	0.008
726.00	0.007
727.00	0.009
728.00	0.008
729.00	0.013
730.00	0.009
731.00	0.011
732.00	0.009
733.00	0.011
734.00	0.008
735.00	0.013
736.00	0.011
737.00	0.014
738.00	0.012
739.00	0.013
740.00	0.014
741.00	0.011
742.00	0.011
743.00	0.011
744.00	0.013
745.00	0.006
746.00	0.012
747.00	0.014
748.00	0.011
749.00	0.013
750.00	0.009
751.00	0.010
752.00	0.011
753.00	0.010
754.00	0.008
755.00	0.010
756.00	0.008
757.00	0.011
758.00	0.010
759.00	0.011
760.00	0.007
761.00	0.012
762.00	0.013
763.00	0.013
764.00	0.014
765.00	0.012
766.00	0.011
767.00	0.012
768.00	0.015
769.00	0.012
770.00	0.013
771.00	0.009
772.00	0.010
773.00	0.011
774.00	0.009
775.00	0.011
776.00	0.011
777.00	0.011
778.00	0.011
779.00	0.011
780.00	0.012
781.00	0.013
782.00	0.011
783.00	0.014
784.00	0.013
785.00	0.011
786.00	0.014
787.00	0.011
788.00	0.011
789.00	0.012
790.00	0.014
791.00	0.009
792.00	0.009
793.00	0.012
794.00	0.013
795.00	0.011
796.00	0.009
797.00	0.013
798.00	0.012
799.00	0.014
800.00	0.013
801.00	0.016
802.00	0.016
803.00	0.018
804.00	0.012
805.00	0.018
806.00	0.023
807.00	0.015
808.00	0.016
809.00	0.015
810.00	0.015
811.00	0.015
812.00	0.017
813.00	0.008
814.00	0.011
815.00	0.014
816.00	0.015
817.00	0.017
818.00	0.023
819.00	0.025
820.00	0.018
821.00	0.025
822.00	0.021
823.00	0.024
824.00	0.019
825.00	0.024
826.00	0.019
827.00	0.021
828.00	0.012
829.00	0.025
830.00	0.021
831.00	0.017
832.00	0.021
833.00	0.023
834.00	0.013
835.00	0.028
836.00	0.015
837.00	0.039
838.00	0.017
839.00	0.018
840.00	0.012
841.00	0.021
842.00	0.019
843.00	0.013
844.00	0.019
845.00	0.009
846.00	0.025
847.00	0.023
848.00	0.022
849.00	0.013
850.00	0.012
>>>>>End Processed Spectral Data<<<<<
